# Nusselt number time series
# <Nu(t)> averaged between 0.000000 and 2050.000000 with sampling frequency 2.000000
# time		 Nu(t)		 <Nu(t)>
0.000000	 1.000000	 1.000000
2.000000	 1.000431	 1.000215
4.000000	 1.000893	 1.000441
6.000000	 1.001468	 1.000698
8.000000	 1.002246	 1.001008
10.000000	 1.003344	 1.001397
12.000000	 1.004924	 1.001901
14.000000	 1.007213	 1.002565
16.000000	 1.010540	 1.003451
18.000000	 1.015372	 1.004643
20.000000	 1.022384	 1.006256
22.000000	 1.032531	 1.008446
24.000000	 1.047171	 1.011425
26.000000	 1.068205	 1.015480
28.000000	 1.098271	 1.021000
30.000000	 1.140965	 1.028498
32.000000	 1.201089	 1.038650
34.000000	 1.284868	 1.052329
36.000000	 1.400034	 1.070629
38.000000	 1.555611	 1.094878
40.000000	 1.761097	 1.126603
42.000000	 2.024699	 1.167425
44.000000	 2.350297	 1.218855
46.000000	 2.733209	 1.281953
48.000000	 3.155725	 1.356904
50.000000	 3.584710	 1.442588
52.000000	 3.974417	 1.536360
54.000000	 4.276354	 1.634217
56.000000	 4.453857	 1.731446
58.000000	 4.494407	 1.823545
60.000000	 4.412918	 1.907073
62.000000	 4.244003	 1.980102
64.000000	 4.028760	 2.042182
66.000000	 3.803444	 2.093984
68.000000	 3.593894	 2.136839
70.000000	 3.414827	 2.172338
72.000000	 3.272144	 2.202063
74.000000	 3.165934	 2.227428
76.000000	 3.092990	 2.249622
78.000000	 3.048533	 2.269595
80.000000	 3.027238	 2.288074
82.000000	 3.023826	 2.305592
84.000000	 3.033371	 2.322517
86.000000	 3.051474	 2.339084
88.000000	 3.074351	 2.355423
90.000000	 3.098873	 2.371585
92.000000	 3.122555	 2.387563
94.000000	 3.143530	 2.403312
96.000000	 3.160629	 2.418768
98.000000	 3.173257	 2.433858
100.000000	 3.181307	 2.448514
102.000000	 3.185056	 2.462678
104.000000	 3.185061	 2.476308
106.000000	 3.182051	 2.489377
108.000000	 3.176826	 2.501876
110.000000	 3.170173	 2.513810
112.000000	 3.162799	 2.525196
114.000000	 3.155278	 2.536059
116.000000	 3.148057	 2.546432
118.000000	 3.141453	 2.556349
120.000000	 3.135651	 2.565846
122.000000	 3.130723	 2.574957
124.000000	 3.126654	 2.583714
126.000000	 3.123370	 2.592146
128.000000	 3.120759	 2.600279
130.000000	 3.118693	 2.608133
132.000000	 3.117046	 2.615729
134.000000	 3.115700	 2.623081
136.000000	 3.114556	 2.630204
138.000000	 3.113538	 2.637109
140.000000	 3.112587	 2.643806
142.000000	 3.111666	 2.650304
144.000000	 3.110754	 2.656612
146.000000	 3.109844	 2.662736
148.000000	 3.108936	 2.668686
150.000000	 3.108037	 2.674467
152.000000	 3.107159	 2.680086
154.000000	 3.106311	 2.685550
156.000000	 3.105504	 2.690866
158.000000	 3.104746	 2.696040
160.000000	 3.104043	 2.701077
162.000000	 3.103397	 2.705983
164.000000	 3.102810	 2.710764
166.000000	 3.102280	 2.715425
168.000000	 3.101804	 2.719971
170.000000	 3.101377	 2.724406
172.000000	 3.100995	 2.728734
174.000000	 3.100654	 2.732961
176.000000	 3.100347	 2.737089
178.000000	 3.100070	 2.741122
180.000000	 3.099820	 2.745063
182.000000	 3.099592	 2.748917
184.000000	 3.099383	 2.752685
186.000000	 3.099190	 2.756372
188.000000	 3.099013	 2.759978
190.000000	 3.098848	 2.763508
192.000000	 3.098695	 2.766964
194.000000	 3.098553	 2.770347
196.000000	 3.098421	 2.773661
198.000000	 3.098299	 2.776908
200.000000	 3.098185	 2.780089
202.000000	 3.098080	 2.783206
204.000000	 3.097983	 2.786262
206.000000	 3.097893	 2.789259
208.000000	 3.097811	 2.792197
210.000000	 3.097735	 2.795080
212.000000	 3.097665	 2.797908
214.000000	 3.097601	 2.800683
216.000000	 3.097542	 2.803406
218.000000	 3.097488	 2.806080
220.000000	 3.097439	 2.808704
222.000000	 3.097394	 2.811282
224.000000	 3.097353	 2.813814
226.000000	 3.097315	 2.816300
228.000000	 3.097281	 2.818744
230.000000	 3.097250	 2.821145
232.000000	 3.097221	 2.823504
234.000000	 3.097195	 2.825824
236.000000	 3.097171	 2.828104
238.000000	 3.097149	 2.830346
240.000000	 3.097129	 2.832551
242.000000	 3.097111	 2.834719
244.000000	 3.097095	 2.836853
246.000000	 3.097080	 2.838951
248.000000	 3.097067	 2.841016
250.000000	 3.097054	 2.843048
252.000000	 3.097043	 2.845048
254.000000	 3.097033	 2.847017
256.000000	 3.097024	 2.848955
258.000000	 3.097016	 2.850863
260.000000	 3.097009	 2.852742
262.000000	 3.097003	 2.854592
264.000000	 3.096997	 2.856415
266.000000	 3.096992	 2.858210
268.000000	 3.096987	 2.859979
270.000000	 3.096983	 2.861722
272.000000	 3.096979	 2.863439
274.000000	 3.096976	 2.865131
276.000000	 3.096973	 2.866799
278.000000	 3.096970	 2.868443
280.000000	 3.096968	 2.870064
282.000000	 3.096966	 2.871662
284.000000	 3.096964	 2.873237
286.000000	 3.096963	 2.874791
288.000000	 3.096961	 2.876323
290.000000	 3.096960	 2.877834
292.000000	 3.096959	 2.879325
294.000000	 3.096958	 2.880796
296.000000	 3.096957	 2.882246
298.000000	 3.096957	 2.883678
300.000000	 3.096956	 2.885090
302.000000	 3.096956	 2.886484
304.000000	 3.096955	 2.887860
306.000000	 3.096955	 2.889217
308.000000	 3.096955	 2.890558
310.000000	 3.096954	 2.891881
312.000000	 3.096954	 2.893187
314.000000	 3.096954	 2.894477
316.000000	 3.096954	 2.895750
318.000000	 3.096954	 2.897008
320.000000	 3.096954	 2.898249
322.000000	 3.096954	 2.899476
324.000000	 3.096954	 2.900688
326.000000	 3.096954	 2.901884
328.000000	 3.096954	 2.903066
330.000000	 3.096954	 2.904234
332.000000	 3.096954	 2.905389
334.000000	 3.096954	 2.906529
336.000000	 3.096954	 2.907656
338.000000	 3.096955	 2.908769
340.000000	 3.096955	 2.909870
342.000000	 3.096955	 2.910957
344.000000	 3.096955	 2.912032
346.000000	 3.096955	 2.913095
348.000000	 3.096955	 2.914146
350.000000	 3.096955	 2.915185
352.000000	 3.096955	 2.916211
354.000000	 3.096956	 2.917227
356.000000	 3.096956	 2.918231
358.000000	 3.096956	 2.919224
360.000000	 3.096956	 2.920206
362.000000	 3.096956	 2.921177
364.000000	 3.096956	 2.922138
366.000000	 3.096957	 2.923088
368.000000	 3.096957	 2.924027
370.000000	 3.096957	 2.924957
372.000000	 3.096957	 2.925877
374.000000	 3.096957	 2.926787
376.000000	 3.096957	 2.927687
378.000000	 3.096958	 2.928578
380.000000	 3.096958	 2.929460
382.000000	 3.096958	 2.930332
384.000000	 3.096958	 2.931196
386.000000	 3.096958	 2.932050
388.000000	 3.096959	 2.932896
390.000000	 3.096959	 2.933733
392.000000	 3.096959	 2.934561
394.000000	 3.096959	 2.935381
396.000000	 3.096959	 2.936193
398.000000	 3.096960	 2.936997
400.000000	 3.096960	 2.937793
402.000000	 3.096960	 2.938581
404.000000	 3.096960	 2.939361
406.000000	 3.096961	 2.940134
408.000000	 3.096961	 2.940899
410.000000	 3.096961	 2.941656
412.000000	 3.096961	 2.942407
414.000000	 3.096962	 2.943150
416.000000	 3.096962	 2.943886
418.000000	 3.096962	 2.944615
420.000000	 3.096963	 2.945337
422.000000	 3.096963	 2.946052
424.000000	 3.096963	 2.946760
426.000000	 3.096964	 2.947462
428.000000	 3.096964	 2.948158
430.000000	 3.096964	 2.948846
432.000000	 3.096965	 2.949529
434.000000	 3.096965	 2.950205
436.000000	 3.096965	 2.950876
438.000000	 3.096966	 2.951540
440.000000	 3.096966	 2.952198
442.000000	 3.096967	 2.952850
444.000000	 3.096967	 2.953496
446.000000	 3.096967	 2.954136
448.000000	 3.096968	 2.954771
450.000000	 3.096968	 2.955400
452.000000	 3.096969	 2.956024
454.000000	 3.096969	 2.956642
456.000000	 3.096970	 2.957255
458.000000	 3.096971	 2.957863
460.000000	 3.096971	 2.958465
462.000000	 3.096972	 2.959062
464.000000	 3.096972	 2.959654
466.000000	 3.096973	 2.960240
468.000000	 3.096974	 2.960822
470.000000	 3.096974	 2.961399
472.000000	 3.096975	 2.961971
474.000000	 3.096976	 2.962539
476.000000	 3.096977	 2.963101
478.000000	 3.096977	 2.963659
480.000000	 3.096978	 2.964212
482.000000	 3.096979	 2.964761
484.000000	 3.096980	 2.965305
486.000000	 3.096981	 2.965844
488.000000	 3.096982	 2.966380
490.000000	 3.096983	 2.966911
492.000000	 3.096984	 2.967437
494.000000	 3.096985	 2.967960
496.000000	 3.096986	 2.968478
498.000000	 3.096987	 2.968992
500.000000	 3.096988	 2.969502
502.000000	 3.096989	 2.970008
504.000000	 3.096991	 2.970510
506.000000	 3.096992	 2.971008
508.000000	 3.096993	 2.971502
510.000000	 3.096995	 2.971992
512.000000	 3.096996	 2.972478
514.000000	 3.096998	 2.972961
516.000000	 3.096999	 2.973440
518.000000	 3.097001	 2.973915
520.000000	 3.097002	 2.974387
522.000000	 3.097004	 2.974855
524.000000	 3.097006	 2.975319
526.000000	 3.097008	 2.975780
528.000000	 3.097010	 2.976237
530.000000	 3.097012	 2.976691
532.000000	 3.097014	 2.977142
534.000000	 3.097016	 2.977589
536.000000	 3.097018	 2.978033
538.000000	 3.097020	 2.978474
540.000000	 3.097022	 2.978912
542.000000	 3.097025	 2.979346
544.000000	 3.097027	 2.979777
546.000000	 3.097030	 2.980205
548.000000	 3.097033	 2.980630
550.000000	 3.097035	 2.981051
552.000000	 3.097038	 2.981470
554.000000	 3.097041	 2.981886
556.000000	 3.097044	 2.982299
558.000000	 3.097048	 2.982708
560.000000	 3.097051	 2.983115
562.000000	 3.097054	 2.983519
564.000000	 3.097058	 2.983921
566.000000	 3.097061	 2.984319
568.000000	 3.097065	 2.984715
570.000000	 3.097069	 2.985107
572.000000	 3.097073	 2.985497
574.000000	 3.097077	 2.985885
576.000000	 3.097082	 2.986270
578.000000	 3.097086	 2.986652
580.000000	 3.097091	 2.987031
582.000000	 3.097096	 2.987408
584.000000	 3.097101	 2.987783
586.000000	 3.097106	 2.988154
588.000000	 3.097111	 2.988524
590.000000	 3.097117	 2.988891
592.000000	 3.097123	 2.989255
594.000000	 3.097129	 2.989617
596.000000	 3.097135	 2.989977
598.000000	 3.097141	 2.990334
600.000000	 3.097148	 2.990689
602.000000	 3.097155	 2.991041
604.000000	 3.097162	 2.991392
606.000000	 3.097169	 2.991740
608.000000	 3.097177	 2.992085
610.000000	 3.097185	 2.992429
612.000000	 3.097193	 2.992770
614.000000	 3.097201	 2.993109
616.000000	 3.097210	 2.993446
618.000000	 3.097219	 2.993781
620.000000	 3.097228	 2.994113
622.000000	 3.097238	 2.994444
624.000000	 3.097248	 2.994772
626.000000	 3.097258	 2.995099
628.000000	 3.097269	 2.995423
630.000000	 3.097280	 2.995745
632.000000	 3.097292	 2.996066
634.000000	 3.097304	 2.996384
636.000000	 3.097316	 2.996700
638.000000	 3.097329	 2.997015
640.000000	 3.097342	 2.997327
642.000000	 3.097356	 2.997638
644.000000	 3.097370	 2.997947
646.000000	 3.097385	 2.998254
648.000000	 3.097400	 2.998559
650.000000	 3.097416	 2.998862
652.000000	 3.097432	 2.999163
654.000000	 3.097449	 2.999463
656.000000	 3.097466	 2.999761
658.000000	 3.097485	 3.000057
660.000000	 3.097503	 3.000352
662.000000	 3.097523	 3.000644
664.000000	 3.097543	 3.000935
666.000000	 3.097564	 3.001225
668.000000	 3.097585	 3.001512
670.000000	 3.097608	 3.001798
672.000000	 3.097631	 3.002083
674.000000	 3.097655	 3.002365
676.000000	 3.097679	 3.002646
678.000000	 3.097705	 3.002926
680.000000	 3.097731	 3.003204
682.000000	 3.097759	 3.003481
684.000000	 3.097787	 3.003755
686.000000	 3.097817	 3.004029
688.000000	 3.097847	 3.004301
690.000000	 3.097879	 3.004571
692.000000	 3.097912	 3.004840
694.000000	 3.097946	 3.005108
696.000000	 3.097981	 3.005374
698.000000	 3.098017	 3.005639
700.000000	 3.098055	 3.005902
702.000000	 3.098093	 3.006164
704.000000	 3.098134	 3.006424
706.000000	 3.098176	 3.006684
708.000000	 3.098219	 3.006941
710.000000	 3.098263	 3.007198
712.000000	 3.098310	 3.007453
714.000000	 3.098358	 3.007707
716.000000	 3.098407	 3.007960
718.000000	 3.098459	 3.008211
720.000000	 3.098512	 3.008461
722.000000	 3.098567	 3.008710
724.000000	 3.098624	 3.008958
726.000000	 3.098684	 3.009204
728.000000	 3.098745	 3.009450
730.000000	 3.098808	 3.009694
732.000000	 3.098874	 3.009937
734.000000	 3.098942	 3.010179
736.000000	 3.099012	 3.010419
738.000000	 3.099085	 3.010659
740.000000	 3.099161	 3.010898
742.000000	 3.099239	 3.011135
744.000000	 3.099320	 3.011372
746.000000	 3.099404	 3.011607
748.000000	 3.099491	 3.011841
750.000000	 3.099581	 3.012075
752.000000	 3.099674	 3.012307
754.000000	 3.099770	 3.012538
756.000000	 3.099870	 3.012769
758.000000	 3.099973	 3.012998
760.000000	 3.100081	 3.013227
762.000000	 3.100192	 3.013454
764.000000	 3.100306	 3.013681
766.000000	 3.100425	 3.013907
768.000000	 3.100549	 3.014132
770.000000	 3.100676	 3.014356
772.000000	 3.100809	 3.014580
774.000000	 3.100946	 3.014802
776.000000	 3.101087	 3.015024
778.000000	 3.101234	 3.015245
780.000000	 3.101387	 3.015466
782.000000	 3.101544	 3.015685
784.000000	 3.101707	 3.015904
786.000000	 3.101877	 3.016122
788.000000	 3.102052	 3.016340
790.000000	 3.102233	 3.016557
792.000000	 3.102422	 3.016773
794.000000	 3.102616	 3.016989
796.000000	 3.102818	 3.017204
798.000000	 3.103027	 3.017418
800.000000	 3.103244	 3.017632
802.000000	 3.103469	 3.017846
804.000000	 3.103701	 3.018059
806.000000	 3.103942	 3.018271
808.000000	 3.104192	 3.018484
810.000000	 3.104451	 3.018695
812.000000	 3.104719	 3.018907
814.000000	 3.104997	 3.019118
816.000000	 3.105286	 3.019328
818.000000	 3.105584	 3.019539
820.000000	 3.105894	 3.019749
822.000000	 3.106215	 3.019959
824.000000	 3.106548	 3.020168
826.000000	 3.106893	 3.020378
828.000000	 3.107250	 3.020587
830.000000	 3.107621	 3.020796
832.000000	 3.108005	 3.021006
834.000000	 3.108404	 3.021215
836.000000	 3.108817	 3.021424
838.000000	 3.109246	 3.021633
840.000000	 3.109690	 3.021842
842.000000	 3.110152	 3.022051
844.000000	 3.110630	 3.022261
846.000000	 3.111126	 3.022470
848.000000	 3.111641	 3.022680
850.000000	 3.112176	 3.022890
852.000000	 3.112730	 3.023101
854.000000	 3.113305	 3.023311
856.000000	 3.113902	 3.023523
858.000000	 3.114522	 3.023734
860.000000	 3.115164	 3.023946
862.000000	 3.115831	 3.024159
864.000000	 3.116524	 3.024372
866.000000	 3.117243	 3.024586
868.000000	 3.117989	 3.024801
870.000000	 3.118763	 3.025017
872.000000	 3.119567	 3.025233
874.000000	 3.120401	 3.025450
876.000000	 3.121267	 3.025668
878.000000	 3.122166	 3.025888
880.000000	 3.123098	 3.026108
882.000000	 3.124066	 3.026330
884.000000	 3.125070	 3.026553
886.000000	 3.126112	 3.026777
888.000000	 3.127193	 3.027003
890.000000	 3.128314	 3.027230
892.000000	 3.129476	 3.027458
894.000000	 3.130682	 3.027689
896.000000	 3.131931	 3.027921
898.000000	 3.133225	 3.028155
900.000000	 3.134565	 3.028391
902.000000	 3.135952	 3.028629
904.000000	 3.137385	 3.028869
906.000000	 3.138865	 3.029111
908.000000	 3.140393	 3.029356
910.000000	 3.141970	 3.029603
912.000000	 3.143595	 3.029852
914.000000	 3.145268	 3.030104
916.000000	 3.146990	 3.030359
918.000000	 3.148759	 3.030616
920.000000	 3.150575	 3.030877
922.000000	 3.152436	 3.031140
924.000000	 3.154338	 3.031406
926.000000	 3.156279	 3.031675
928.000000	 3.158256	 3.031947
930.000000	 3.160267	 3.032222
932.000000	 3.162310	 3.032501
934.000000	 3.164382	 3.032783
936.000000	 3.166481	 3.033068
938.000000	 3.168605	 3.033356
940.000000	 3.170747	 3.033648
942.000000	 3.172905	 3.033943
944.000000	 3.175076	 3.034241
946.000000	 3.177258	 3.034543
948.000000	 3.179448	 3.034848
950.000000	 3.181646	 3.035157
952.000000	 3.183851	 3.035468
954.000000	 3.186066	 3.035783
956.000000	 3.188293	 3.036102
958.000000	 3.190536	 3.036423
960.000000	 3.192798	 3.036749
962.000000	 3.195081	 3.037077
964.000000	 3.197388	 3.037409
966.000000	 3.199726	 3.037744
968.000000	 3.202107	 3.038083
970.000000	 3.204541	 3.038426
972.000000	 3.207039	 3.038772
974.000000	 3.209609	 3.039122
976.000000	 3.212259	 3.039476
978.000000	 3.214996	 3.039834
980.000000	 3.217827	 3.040197
982.000000	 3.220756	 3.040564
984.000000	 3.223784	 3.040935
986.000000	 3.226914	 3.041312
988.000000	 3.230146	 3.041693
990.000000	 3.233478	 3.042080
992.000000	 3.236905	 3.042472
994.000000	 3.240421	 3.042870
996.000000	 3.244020	 3.043273
998.000000	 3.247695	 3.043681
1000.000000	 3.251438	 3.044096
1002.000000	 3.255240	 3.044517
1004.000000	 3.259093	 3.044943
1006.000000	 3.262988	 3.045376
1008.000000	 3.266915	 3.045815
1010.000000	 3.270865	 3.046259
1012.000000	 3.274831	 3.046710
1014.000000	 3.278805	 3.047167
1016.000000	 3.282786	 3.047630
1018.000000	 3.286769	 3.048099
1020.000000	 3.290755	 3.048574
1022.000000	 3.294742	 3.049055
1024.000000	 3.298732	 3.049541
1026.000000	 3.302725	 3.050034
1028.000000	 3.306722	 3.050532
1030.000000	 3.310722	 3.051037
1032.000000	 3.314730	 3.051547
1034.000000	 3.318747	 3.052062
1036.000000	 3.322775	 3.052584
1038.000000	 3.326816	 3.053111
1040.000000	 3.330870	 3.053645
1042.000000	 3.334938	 3.054183
1044.000000	 3.339022	 3.054728
1046.000000	 3.343122	 3.055278
1048.000000	 3.347240	 3.055835
1050.000000	 3.351379	 3.056396
1052.000000	 3.355540	 3.056964
1054.000000	 3.359728	 3.057537
1056.000000	 3.363949	 3.058117
1058.000000	 3.368212	 3.058702
1060.000000	 3.372524	 3.059293
1062.000000	 3.376893	 3.059890
1064.000000	 3.381325	 3.060493
1066.000000	 3.385821	 3.061102
1068.000000	 3.390388	 3.061718
1070.000000	 3.395029	 3.062339
1072.000000	 3.399752	 3.062968
1074.000000	 3.404563	 3.063603
1076.000000	 3.409471	 3.064244
1078.000000	 3.414487	 3.064893
1080.000000	 3.419617	 3.065549
1082.000000	 3.424874	 3.066212
1084.000000	 3.430271	 3.066882
1086.000000	 3.435824	 3.067560
1088.000000	 3.441552	 3.068246
1090.000000	 3.447475	 3.068941
1092.000000	 3.453619	 3.069644
1094.000000	 3.460025	 3.070357
1096.000000	 3.466779	 3.071079
1098.000000	 3.474068	 3.071811
1100.000000	 3.481972	 3.072556
1102.000000	 3.490450	 3.073313
1104.000000	 3.499471	 3.074084
1106.000000	 3.509080	 3.074869
1108.000000	 3.519383	 3.075670
1110.000000	 3.530349	 3.076487
1112.000000	 3.541988	 3.077323
1114.000000	 3.554283	 3.078178
1116.000000	 3.567044	 3.079052
1118.000000	 3.580087	 3.079947
1120.000000	 3.593255	 3.080862
1122.000000	 3.606468	 3.081797
1124.000000	 3.619773	 3.082753
1126.000000	 3.633096	 3.083729
1128.000000	 3.646322	 3.084724
1130.000000	 3.659345	 3.085740
1132.000000	 3.672088	 3.086774
1134.000000	 3.684540	 3.087826
1136.000000	 3.696722	 3.088896
1138.000000	 3.708691	 3.089984
1140.000000	 3.720550	 3.091088
1142.000000	 3.732428	 3.092209
1144.000000	 3.744537	 3.093348
1146.000000	 3.757231	 3.094504
1148.000000	 3.770920	 3.095681
1150.000000	 3.785885	 3.096879
1152.000000	 3.802187	 3.098101
1154.000000	 3.819803	 3.099350
1156.000000	 3.838688	 3.100627
1158.000000	 3.858839	 3.101934
1160.000000	 3.880316	 3.103274
1162.000000	 3.903146	 3.104648
1164.000000	 3.927307	 3.106059
1166.000000	 3.952756	 3.107509
1168.000000	 3.979481	 3.109000
1170.000000	 4.007531	 3.110533
1172.000000	 4.037010	 3.112111
1174.000000	 4.068113	 3.113737
1176.000000	 4.101134	 3.115414
1178.000000	 4.136543	 3.117144
1180.000000	 4.174475	 3.118933
1182.000000	 4.214887	 3.120785
1184.000000	 4.257733	 3.122702
1186.000000	 4.302860	 3.124689
1188.000000	 4.349858	 3.126748
1190.000000	 4.397896	 3.128881
1192.000000	 4.446194	 3.131087
1194.000000	 4.493981	 3.133366
1196.000000	 4.540951	 3.135716
1198.000000	 4.587244	 3.138135
1200.000000	 4.633090	 3.140623
1202.000000	 4.679125	 3.143178
1204.000000	 4.725345	 3.145802
1206.000000	 4.770428	 3.148492
1208.000000	 4.812482	 3.151242
1210.000000	 4.850018	 3.154046
1212.000000	 4.882560	 3.156893
1214.000000	 4.910169	 3.159777
1216.000000	 4.933682	 3.162690
1218.000000	 4.954696	 3.165628
1220.000000	 4.975557	 3.168590
1222.000000	 4.998743	 3.171580
1224.000000	 5.026193	 3.174606
1226.000000	 5.059105	 3.177675
1228.000000	 5.097666	 3.180797
1230.000000	 5.141109	 3.183979
1232.000000	 5.188354	 3.187228
1234.000000	 5.238070	 3.190546
1236.000000	 5.288573	 3.193936
1238.000000	 5.337505	 3.197393
1240.000000	 5.382306	 3.200911
1242.000000	 5.420802	 3.204480
1244.000000	 5.451769	 3.208088
1246.000000	 5.475791	 3.211722
1248.000000	 5.495628	 3.215376
1250.000000	 5.515319	 3.219050
1252.000000	 5.538912	 3.222750
1254.000000	 5.569240	 3.226486
1256.000000	 5.607138	 3.230271
1258.000000	 5.650989	 3.234114
1260.000000	 5.696932	 3.238017
1262.000000	 5.740714	 3.241977
1264.000000	 5.779045	 3.245985
1266.000000	 5.810123	 3.250029
1268.000000	 5.833722	 3.254098
1270.000000	 5.849919	 3.258179
1272.000000	 5.858339	 3.262261
1274.000000	 5.859961	 3.266333
