# Reynolds number time series
# <Re(t)> averaged between 100.000000 and 400.000000 with sampling frequency 1.000000
# time		 Re_uMag(t)	 <Re_uMag(t)>	 Re_uxMag(t)	 <Re_uxMag(t)>	 Re_uzMag(t)	 <Re_uzMag(t)>	  Re_uRMS(t)	 <Re_uRMS(t)>	 Re_uxRMS(t)	 <Re_uxRMS(t)>	 Re_uzRMS(t)	 <Re_uzRMS(t)>	 
100.000000	 1575.667562	 1575.667562	 1215.661888	 1215.661888	 1023.017338	 1023.017338	 1621.895715	 1621.895715	 1329.273936	 1329.273936	 1248.974601	 1248.974601	 
101.000000	 1596.809700	 1584.358456	 1289.483137	 1251.641944	 1029.381024	 1025.917291	 1644.447367	 1631.708029	 1398.765333	 1362.982470	 1234.597651	 1241.654491	 
102.000000	 1593.755525	 1587.304023	 1296.708511	 1264.987711	 1037.087156	 1028.840824	 1648.858907	 1636.997541	 1418.275519	 1378.165974	 1247.149697	 1243.361902	 
103.000000	 1588.609094	 1587.477145	 1298.284811	 1257.245890	 1046.957409	 1032.315449	 1646.878860	 1639.452969	 1475.014802	 1378.028832	 1251.978336	 1244.938267	 
104.000000	 1520.686834	 1573.411544	 1326.888700	 1257.228365	 1057.386666	 1036.389047	 1596.743726	 1629.680943	 1530.829146	 1391.260951	 1262.820182	 1246.452049	 
105.000000	 1503.528071	 1553.788869	 1352.403960	 1263.982601	 1067.086408	 1041.036160	 1634.156953	 1613.203634	 1568.360182	 1411.281982	 1267.787175	 1248.799907	 
106.000000	 1503.236644	 1531.127498	 1371.226138	 1269.357545	 1076.819589	 1046.115404	 1656.638238	 1593.155732	 1597.852023	 1430.143827	 1252.925254	 1249.089216	 
107.000000	 1460.917988	 1504.983175	 1335.491816	 1268.424907	 1086.991554	 1051.111254	 1632.871196	 1571.171312	 1586.960148	 1442.463818	 1239.630343	 1247.832554	 
108.000000	 1427.000705	 1477.873429	 1246.294318	 1265.584016	 1094.230619	 1055.418856	 1559.295413	 1547.918963	 1517.021246	 1446.777837	 1227.618957	 1245.578598	 
109.000000	 1416.182023	 1454.609196	 1202.523985	 1259.264945	 1097.037393	 1058.640196	 1551.891517	 1527.622020	 1419.917006	 1444.000420	 1220.417075	 1242.808519	 
110.000000	 1480.131814	 1437.230169	 1136.374952	 1246.871358	 1094.509138	 1060.533896	 1583.632043	 1519.438819	 1335.388373	 1433.022808	 1239.611710	 1241.034285	 
111.000000	 1560.260120	 1425.503912	 1164.568619	 1229.038719	 1085.869982	 1060.805742	 1637.353052	 1504.602178	 1320.669443	 1412.489579	 1257.326236	 1240.849075	 
112.000000	 1666.218083	 1423.796252	 1341.806169	 1208.704908	 1071.907059	 1059.341940	 1736.232667	 1488.538026	 1502.916744	 1384.582279	 1257.132515	 1240.933994	 
113.000000	 1687.792021	 1436.697138	 1394.714288	 1191.344810	 1055.529270	 1056.511369	 1757.950029	 1495.294604	 1545.490128	 1354.927674	 1231.867337	 1239.655323	 
114.000000	 1600.034007	 1445.772947	 1299.822806	 1181.788280	 1041.358109	 1053.257043	 1672.967017	 1503.703913	 1551.807110	 1330.652200	 1195.410134	 1236.343925	 
115.000000	 1492.785862	 1446.253343	 1321.032344	 1176.938144	 1031.886809	 1050.152193	 1645.339201	 1505.103279	 1538.942574	 1318.928986	 1166.412657	 1231.533654	 
116.000000	 1460.019911	 1440.602977	 1270.425942	 1166.100618	 1027.683254	 1047.458433	 1610.280223	 1501.082621	 1510.409815	 1310.928171	 1157.654266	 1226.495919	 
117.000000	 1476.483117	 1429.773660	 1260.546797	 1154.116154	 1029.210364	 1045.366897	 1627.575484	 1492.599655	 1509.908492	 1303.275399	 1158.242152	 1221.691176	 
118.000000	 1502.940323	 1416.509324	 1320.800975	 1143.926418	 1037.450313	 1044.138768	 1687.244063	 1482.037570	 1575.393421	 1297.936525	 1153.679730	 1217.556863	 
119.000000	 1569.503222	 1403.566689	 1398.975131	 1136.008928	 1051.251317	 1043.994576	 1744.418686	 1471.070690	 1632.269619	 1294.574990	 1157.122121	 1214.329998	 
120.000000	 1513.867270	 1392.617682	 1361.597018	 1131.066733	 1067.048143	 1044.765295	 1651.329369	 1460.922971	 1551.962537	 1293.123949	 1178.573845	 1212.500737	 
121.000000	 1351.500717	 1384.259975	 1215.933973	 1128.340753	 1081.993798	 1046.344483	 1479.622296	 1452.380922	 1391.490562	 1292.832831	 1210.008119	 1212.303839	 
122.000000	 1347.831845	 1379.100654	 1188.925838	 1126.186237	 1093.964793	 1048.395240	 1423.528472	 1446.497802	 1371.824314	 1292.478045	 1234.446820	 1213.266577	 
123.000000	 1348.693543	 1377.430674	 1147.137919	 1125.895653	 1101.477685	 1050.606830	 1407.503136	 1443.788468	 1358.492488	 1292.338252	 1242.427523	 1214.425012	 
124.000000	 1430.013560	 1378.062308	 1196.762938	 1128.524391	 1104.762221	 1052.744768	 1468.644836	 1443.528471	 1327.677925	 1293.430520	 1252.561899	 1215.813176	 
125.000000	 1489.841090	 1378.829679	 1270.192712	 1133.830222	 1105.771718	 1054.726528	 1535.370761	 1443.759807	 1390.133508	 1296.724883	 1271.820311	 1217.779247	 
126.000000	 1510.209963	 1379.777166	 1308.368561	 1140.294605	 1106.674944	 1056.598669	 1569.633988	 1444.173579	 1446.300128	 1302.063274	 1291.854717	 1220.379881	 
127.000000	 1514.408498	 1380.854472	 1326.138369	 1146.746431	 1108.522224	 1058.415054	 1591.804466	 1444.740709	 1489.485583	 1308.756928	 1311.055442	 1223.531137	 
128.000000	 1520.201972	 1381.908408	 1334.120169	 1152.878677	 1110.776563	 1060.177750	 1611.615144	 1445.642587	 1525.293408	 1316.045579	 1330.864179	 1227.209834	 
129.000000	 1528.746471	 1383.458467	 1346.836840	 1159.068345	 1113.860857	 1061.931070	 1638.219490	 1447.053579	 1566.541781	 1323.890779	 1343.505182	 1230.957647	 
130.000000	 1538.466946	 1385.575024	 1379.931025	 1165.474201	 1119.798666	 1063.784366	 1680.274358	 1448.951736	 1617.507472	 1332.597421	 1318.922880	 1233.624320	 
131.000000	 1548.630650	 1387.902213	 1409.315826	 1171.954748	 1129.556964	 1065.839760	 1712.999389	 1451.881182	 1660.162023	 1341.854108	 1298.673130	 1235.607184	 
132.000000	 1590.295229	 1389.004514	 1441.659845	 1179.645466	 1141.121673	 1068.117916	 1732.849630	 1453.530539	 1679.797654	 1351.335106	 1294.948079	 1237.399595	 
133.000000	 1528.943883	 1389.574250	 1415.596045	 1184.362509	 1151.517976	 1070.550860	 1717.297930	 1455.425068	 1673.340013	 1359.523008	 1300.974825	 1239.250387	 
134.000000	 1478.802306	 1389.906886	 1327.541222	 1188.086348	 1158.252138	 1072.998353	 1645.669378	 1457.997370	 1602.218279	 1365.631666	 1313.100793	 1241.207827	 
135.000000	 1443.235011	 1389.908698	 1326.188186	 1190.970647	 1159.575735	 1075.282800	 1602.339196	 1460.140334	 1539.673433	 1370.290885	 1321.316933	 1243.268932	 
136.000000	 1425.549699	 1389.841439	 1315.147083	 1193.285259	 1155.450039	 1077.241072	 1570.368312	 1462.074522	 1520.221175	 1373.602611	 1322.633258	 1245.260516	 
137.000000	 1465.198850	 1390.868086	 1306.939928	 1194.697032	 1146.745798	 1078.811722	 1581.377375	 1464.207203	 1521.648248	 1374.174310	 1317.808577	 1246.895970	 
138.000000	 1514.417078	 1392.524781	 1370.508286	 1194.497736	 1135.008977	 1079.906910	 1637.828631	 1465.388429	 1548.676230	 1371.640047	 1307.302290	 1248.058525	 
139.000000	 1545.059073	 1393.643707	 1404.969676	 1192.654918	 1122.215659	 1080.548970	 1677.172158	 1464.037055	 1587.921445	 1367.729382	 1296.372884	 1248.911807	 
140.000000	 1545.322390	 1393.494081	 1391.068973	 1189.855947	 1109.681388	 1080.832318	 1682.942947	 1460.062077	 1593.180784	 1363.433311	 1295.074059	 1249.818085	 
141.000000	 1537.673673	 1391.869929	 1366.159706	 1186.470134	 1098.233373	 1080.887867	 1685.948814	 1456.844777	 1582.044061	 1359.167717	 1305.200224	 1250.732809	 
142.000000	 1549.954276	 1389.921720	 1364.670057	 1182.533985	 1088.420682	 1080.772812	 1694.480703	 1454.627099	 1573.150016	 1354.946661	 1294.804660	 1251.229220	 
143.000000	 1554.438112	 1388.418019	 1369.812017	 1178.178577	 1081.653516	 1080.618879	 1681.899742	 1453.256815	 1560.562138	 1350.821785	 1266.828501	 1251.132320	 
144.000000	 1531.536920	 1387.226198	 1360.079884	 1174.477425	 1079.271214	 1080.522699	 1673.538909	 1452.534789	 1577.944731	 1347.128074	 1238.605074	 1250.709567	 
145.000000	 1543.498907	 1386.796483	 1372.146171	 1172.390306	 1081.121320	 1080.524178	 1703.313106	 1452.938585	 1601.197418	 1344.368707	 1225.097147	 1250.130031	 
146.000000	 1506.884654	 1387.379015	 1340.507523	 1171.713458	 1086.107050	 1080.642962	 1672.735471	 1454.432844	 1577.728526	 1342.255302	 1216.667845	 1249.418070	 
147.000000	 1481.645067	 1388.942655	 1264.891332	 1171.423275	 1093.107330	 1080.895719	 1606.811919	 1456.957207	 1521.199098	 1340.695208	 1213.962142	 1248.666885	 
148.000000	 1477.951548	 1390.648667	 1239.931477	 1171.431036	 1101.259697	 1081.291927	 1584.019502	 1459.453518	 1487.041482	 1339.733793	 1217.539996	 1247.998278	 
149.000000	 1436.244714	 1391.532591	 1185.103820	 1171.139211	 1110.238419	 1081.841431	 1523.557970	 1460.729505	 1420.192006	 1339.576614	 1231.136135	 1247.601214	 
150.000000	 1402.491163	 1391.675706	 1154.846479	 1170.626835	 1120.377863	 1082.564161	 1484.940554	 1461.197256	 1352.072760	 1339.698813	 1248.609413	 1247.573640	 
151.000000	 1386.154824	 1391.505510	 1160.317396	 1170.330602	 1132.170168	 1083.490755	 1466.981999	 1461.296425	 1349.438599	 1339.817809	 1268.011548	 1247.957605	 
152.000000	 1384.576942	 1391.374782	 1169.960397	 1170.314460	 1145.835962	 1084.653645	 1462.305622	 1461.310226	 1364.050523	 1340.067093	 1296.396915	 1248.866916	 
153.000000	 1377.757393	 1391.011277	 1188.129719	 1170.354556	 1161.270819	 1086.070135	 1452.678743	 1460.906567	 1388.690090	 1340.629682	 1326.192282	 1250.298867	 
154.000000	 1407.655370	 1390.618182	 1211.467676	 1171.087912	 1177.673305	 1087.735648	 1475.362834	 1460.410936	 1412.119837	 1341.711197	 1352.345177	 1252.151359	 
155.000000	 1431.441578	 1390.415465	 1264.332779	 1172.464800	 1193.472359	 1089.618991	 1512.638224	 1460.120881	 1453.925132	 1343.491036	 1367.073652	 1254.194725	 
156.000000	 1481.291576	 1390.601786	 1309.379593	 1174.278356	 1206.932632	 1091.665789	 1555.162807	 1460.086916	 1501.069042	 1345.887074	 1377.291386	 1256.345593	 
157.000000	 1518.622125	 1391.224813	 1334.960528	 1176.063182	 1217.078732	 1093.813750	 1587.916027	 1460.605508	 1540.517003	 1348.590817	 1380.553956	 1258.482692	 
158.000000	 1583.453457	 1392.098567	 1340.000421	 1178.576300	 1224.271763	 1096.009406	 1610.355573	 1461.535598	 1549.216076	 1351.634590	 1385.548434	 1260.605336	 
159.000000	 1584.827510	 1393.106376	 1366.782073	 1181.374150	 1228.908737	 1098.208783	 1641.625401	 1462.668395	 1576.971864	 1355.165182	 1394.221395	 1262.795550	 
160.000000	 1569.430439	 1394.351200	 1363.459464	 1183.999301	 1230.372234	 1100.361067	 1669.892932	 1463.965361	 1611.130251	 1359.177174	 1404.683886	 1265.094782	 
161.000000	 1536.860875	 1395.916218	 1360.679574	 1186.783977	 1227.708173	 1102.403306	 1686.292355	 1465.566668	 1614.935345	 1363.302305	 1415.007967	 1267.508249	 
162.000000	 1552.457850	 1397.890523	 1392.389130	 1190.003200	 1221.078802	 1104.276983	 1703.924364	 1467.676564	 1620.432524	 1367.136795	 1425.845132	 1270.021533	 
163.000000	 1595.979486	 1400.000893	 1436.712055	 1193.580087	 1211.289440	 1105.940544	 1716.832926	 1470.024441	 1627.074618	 1370.690771	 1420.564396	 1272.371549	 
164.000000	 1602.794579	 1401.736239	 1456.245801	 1197.621098	 1199.705167	 1107.375492	 1721.607882	 1472.163373	 1640.492489	 1374.315914	 1414.232907	 1274.554032	 
165.000000	 1578.214054	 1402.524493	 1445.501098	 1201.207391	 1188.212412	 1108.591990	 1695.871605	 1473.895540	 1623.983617	 1377.922353	 1408.781704	 1276.582383	 
166.000000	 1555.015706	 1402.797660	 1404.654981	 1203.001579	 1178.013985	 1109.616115	 1693.670571	 1475.134012	 1623.941551	 1380.406509	 1390.972241	 1278.257453	 
167.000000	 1538.834815	 1402.793727	 1407.393145	 1204.241283	 1168.861262	 1110.475027	 1695.878497	 1475.831856	 1640.308726	 1381.772631	 1363.204919	 1279.449017	 
168.000000	 1539.564170	 1402.495053	 1383.157708	 1205.282681	 1160.766639	 1111.194677	 1672.199661	 1476.233330	 1632.010885	 1382.913866	 1337.580397	 1280.237574	 
169.000000	 1509.302151	 1401.995100	 1357.074141	 1206.045220	 1153.915390	 1111.798792	 1649.514867	 1476.429230	 1615.673858	 1384.036363	 1318.545067	 1280.751984	 
170.000000	 1480.458635	 1401.555812	 1298.892362	 1206.351846	 1148.418775	 1112.309937	 1606.491374	 1476.432053	 1572.317206	 1384.872369	 1306.142769	 1281.084559	 
171.000000	 1457.869385	 1401.224367	 1266.247992	 1206.015774	 1144.798303	 1112.759610	 1573.547298	 1476.162598	 1519.241922	 1385.170021	 1300.589493	 1281.340966	 
172.000000	 1438.456679	 1400.996694	 1256.547145	 1205.018617	 1143.254247	 1113.172797	 1560.875309	 1475.589693	 1494.479360	 1384.897416	 1302.733341	 1281.630364	 
173.000000	 1416.842944	 1400.841622	 1234.060859	 1203.749307	 1143.192452	 1113.566531	 1542.109446	 1475.143285	 1473.136706	 1383.917206	 1309.654017	 1282.003123	 
174.000000	 1427.606307	 1400.744997	 1216.274042	 1202.650948	 1144.043868	 1113.951038	 1517.409593	 1475.107621	 1441.233267	 1382.419693	 1313.649255	 1282.399173	 
175.000000	 1460.677255	 1400.729076	 1220.126551	 1201.542054	 1146.002142	 1114.337704	 1516.334612	 1475.357908	 1422.188451	 1380.773975	 1315.852137	 1282.794704	 
176.000000	 1495.548086	 1400.780603	 1257.345741	 1200.570991	 1149.228400	 1114.736807	 1560.194598	 1475.647674	 1434.832722	 1379.550466	 1319.534135	 1283.216695	 
177.000000	 1539.735725	 1400.700980	 1300.730180	 1199.918047	 1153.724810	 1115.158182	 1608.293910	 1476.087562	 1466.124811	 1378.699880	 1324.455554	 1283.661322	 
178.000000	 1544.364362	 1400.638155	 1306.097361	 1199.267843	 1159.582314	 1115.626459	 1611.758041	 1476.502153	 1468.200652	 1378.082207	 1328.472761	 1284.130252	 
179.000000	 1524.468551	 1400.534686	 1291.902880	 1198.687844	 1166.389806	 1116.176732	 1584.164237	 1476.718874	 1467.097301	 1377.857178	 1331.686481	 1284.643274	 
180.000000	 1492.280725	 1400.540054	 1291.716009	 1198.386267	 1172.932866	 1116.817072	 1573.448479	 1477.407648	 1499.111152	 1377.905250	 1329.664903	 1285.155740	 
181.000000	 1470.606949	 1400.892960	 1295.441178	 1198.714438	 1177.670422	 1117.518285	 1590.015731	 1478.323979	 1534.058479	 1378.102375	 1328.221499	 1285.661452	 
182.000000	 1463.729369	 1401.066428	 1306.922448	 1199.878901	 1180.145094	 1118.242404	 1591.273004	 1479.101652	 1547.069118	 1378.711468	 1329.363933	 1286.185298	 
183.000000	 1482.009855	 1400.941682	 1346.611653	 1201.605304	 1181.148385	 1118.964416	 1584.115460	 1479.755771	 1533.613245	 1380.045192	 1332.382643	 1286.732543	 
184.000000	 1463.357659	 1400.588859	 1323.410044	 1202.850004	 1181.915178	 1119.679032	 1560.388850	 1480.305957	 1513.636104	 1381.225455	 1343.471198	 1287.392545	 
185.000000	 1454.261193	 1400.375654	 1283.423301	 1203.303836	 1183.119045	 1120.391684	 1548.376094	 1480.854260	 1500.300868	 1381.914028	 1356.522879	 1288.179935	 
186.000000	 1465.245869	 1400.385627	 1296.472384	 1203.821983	 1184.849490	 1121.107383	 1558.634304	 1481.445573	 1500.508579	 1382.468321	 1369.829560	 1289.096933	 
187.000000	 1485.975009	 1400.501717	 1314.456960	 1204.797796	 1187.034746	 1121.828251	 1579.120365	 1482.180666	 1513.444379	 1383.546019	 1375.654432	 1290.071735	 
188.000000	 1511.459480	 1401.174678	 1340.524032	 1206.175301	 1189.439080	 1122.565595	 1607.076544	 1483.102242	 1540.094052	 1385.147984	 1375.057912	 1291.020209	 
189.000000	 1550.507050	 1401.986194	 1390.382305	 1208.222045	 1191.953641	 1123.307609	 1652.490448	 1484.278530	 1561.819126	 1387.110891	 1373.599764	 1291.934630	 
190.000000	 1557.371771	 1402.811993	 1410.767403	 1210.397342	 1194.549209	 1124.059852	 1677.161832	 1485.412158	 1593.163782	 1389.355679	 1376.123217	 1292.856503	 
191.000000	 1535.201321	 1403.857454	 1379.349946	 1212.128648	 1196.880775	 1124.827533	 1653.339300	 1486.250507	 1584.564937	 1391.424796	 1381.644275	 1293.814449	 
192.000000	 1531.042503	 1404.589977	 1382.431234	 1213.801344	 1198.468567	 1125.607131	 1658.247330	 1487.506727	 1586.445580	 1393.483270	 1387.580020	 1294.820663	 
193.000000	 1519.526259	 1405.402360	 1374.793729	 1215.323552	 1199.421430	 1126.389777	 1645.176067	 1488.859214	 1582.195256	 1395.348502	 1394.700451	 1295.883214	 
194.000000	 1517.509346	 1406.275638	 1367.972248	 1216.775841	 1199.752660	 1127.162018	 1634.955998	 1490.099565	 1580.403533	 1397.020786	 1396.026725	 1296.933538	 
195.000000	 1521.821554	 1407.169982	 1368.149092	 1218.270408	 1198.799032	 1127.906336	 1655.219802	 1491.338597	 1585.287597	 1398.620095	 1394.258964	 1297.937750	 
196.000000	 1529.226249	 1408.038281	 1379.548144	 1219.724156	 1196.226322	 1128.605736	 1676.251071	 1492.577172	 1596.249087	 1400.183553	 1392.409152	 1298.895054	 
197.000000	 1513.106439	 1408.864215	 1387.216249	 1220.806247	 1191.995025	 1129.247641	 1657.276720	 1493.607127	 1615.887774	 1401.596070	 1381.996510	 1299.725679	 
198.000000	 1490.294892	 1409.481548	 1399.078311	 1221.620295	 1186.579531	 1129.824786	 1669.430581	 1494.437046	 1632.691031	 1402.756933	 1369.385929	 1300.419074	 
199.000000	 1486.010912	 1409.617819	 1392.194319	 1222.472045	 1180.666097	 1130.333200	 1667.551762	 1495.122920	 1633.294534	 1403.843783	 1362.110744	 1301.035194	 
200.000000	 1473.833890	 1409.410234	 1370.353549	 1223.122881	 1174.852872	 1130.772920	 1652.795088	 1495.530506	 1619.198793	 1404.919964	 1358.293332	 1301.602106	 
201.000000	 1432.655340	 1409.233721	 1328.946763	 1223.508691	 1169.689364	 1131.150366	 1622.507039	 1495.814318	 1591.664816	 1405.788859	 1350.480135	 1302.081302	 
202.000000	 1402.152823	 1409.078176	 1293.982424	 1223.743806	 1165.719472	 1131.478893	 1587.023784	 1495.909006	 1555.696008	 1406.378452	 1344.002465	 1302.485364	 
203.000000	 1428.027391	 1409.183376	 1268.921864	 1223.761954	 1163.296095	 1131.775557	 1556.820084	 1495.753795	 1523.162095	 1406.713383	 1340.602060	 1302.847899	 
204.000000	 1473.136192	 1409.621332	 1306.128552	 1223.704590	 1162.139700	 1132.053857	 1560.619986	 1495.456976	 1494.489523	 1406.805644	 1341.662428	 1303.214806	 
205.000000	 1513.536163	 1410.116916	 1357.737838	 1223.683031	 1162.136495	 1132.324753	 1618.284438	 1495.148229	 1535.798572	 1406.797255	 1342.792717	 1303.582792	 
206.000000	 1534.427788	 1410.674662	 1386.037812	 1223.711621	 1163.496510	 1132.601717	 1654.757345	 1495.819051	 1576.991281	 1406.800936	 1345.223530	 1303.952103	 
207.000000	 1524.583017	 1411.361627	 1368.989596	 1223.925767	 1166.052674	 1132.897688	 1640.574072	 1496.790371	 1568.332824	 1406.960003	 1345.951362	 1304.314977	 
208.000000	 1497.629902	 1411.966482	 1347.597769	 1224.395395	 1169.303819	 1133.220639	 1625.415386	 1497.565747	 1565.997783	 1407.269408	 1343.873184	 1304.658180	 
209.000000	 1492.508287	 1412.376215	 1334.122300	 1225.042467	 1173.544042	 1133.580284	 1619.996047	 1498.216835	 1570.063367	 1407.585195	 1341.546224	 1304.984461	 
210.000000	 1511.478639	 1412.675000	 1308.050199	 1225.634268	 1180.019178	 1133.993982	 1607.224993	 1498.790730	 1568.480873	 1407.993800	 1339.297008	 1305.292052	 
211.000000	 1478.171405	 1412.947151	 1290.199376	 1226.205609	 1188.899695	 1134.480681	 1583.341093	 1499.330376	 1553.857975	 1408.666296	 1341.294063	 1305.611988	 
212.000000	 1473.072970	 1413.220635	 1294.704079	 1226.806397	 1199.202023	 1135.049537	 1579.084053	 1499.809733	 1522.375255	 1409.468326	 1355.332502	 1306.048228	 
213.000000	 1484.768485	 1413.475331	 1323.388858	 1227.646546	 1208.559243	 1135.686753	 1593.193451	 1500.151419	 1520.485350	 1410.431086	 1377.318895	 1306.671034	 
214.000000	 1487.665823	 1413.837513	 1345.044650	 1228.654373	 1214.118417	 1136.357659	 1619.181314	 1500.441972	 1556.610880	 1411.664095	 1384.016835	 1307.316229	 
215.000000	 1490.052235	 1414.435363	 1369.035889	 1229.611082	 1215.964578	 1137.035175	 1644.905788	 1500.831770	 1587.862038	 1413.079689	 1380.698564	 1307.932485	 
