# Velocity boundary layer depth time series
# <\delta_u(t)> averaged between 100.000000 and 400.000000 with sampling frequency 1.000000
# time		 max(Re_uxRMS)in [0, H/2]	 z(max(Re_uxRMS)in [0, H/2])	  max(Re_uxRMS)in [H/2, H]	 z(max(Re_uxRMS)in [H/2, H])	 \delta_u[inst.]	  max(<Re_uxRMS>)in [0, H/2]	 z(max(<Re_uxRMS>)in [0, H/2])	  max(<Re_uxRMS>)in [H/2, H]	 z(max(<Re_uxRMS>)in [H/2, H])	 \delta_u[av.]	 
100.000000	 1327.011810	 0.297500	 1329.273936	 0.842500	 0.227500	 1327.011810	 0.297500	 1329.273936	 0.842500	 0.227500	 
101.000000	 1352.864179	 0.287500	 1398.765333	 0.832500	 0.227500	 1338.585620	 0.292500	 1362.982470	 0.837500	 0.227500	 
102.000000	 1348.599393	 0.287500	 1418.275519	 0.857500	 0.215000	 1341.598026	 0.292500	 1378.165974	 0.842500	 0.225000	 
103.000000	 1342.996272	 0.292500	 1475.014802	 0.897500	 0.197500	 1341.947588	 0.292500	 1378.028832	 0.862500	 0.215000	 
104.000000	 1247.827154	 0.307500	 1530.829146	 0.917500	 0.195000	 1322.111052	 0.292500	 1391.260951	 0.877500	 0.207500	 
105.000000	 1182.315715	 0.337500	 1568.360182	 0.922500	 0.207500	 1292.560750	 0.297500	 1411.281982	 0.887500	 0.205000	 
106.000000	 1153.945686	 0.097500	 1597.852023	 0.922500	 0.087500	 1258.081418	 0.302500	 1430.143827	 0.902500	 0.200000	 
107.000000	 1233.894759	 0.077500	 1586.960148	 0.932500	 0.072500	 1217.826702	 0.302500	 1442.463818	 0.907500	 0.197500	 
108.000000	 1279.713995	 0.077500	 1517.021246	 0.937500	 0.070000	 1177.367775	 0.307500	 1446.777837	 0.912500	 0.197500	 
109.000000	 1304.310844	 0.087500	 1419.917006	 0.917500	 0.085000	 1147.186255	 0.302500	 1444.000420	 0.912500	 0.195000	 
110.000000	 1289.988548	 0.092500	 1335.388373	 0.892500	 0.100000	 1126.839137	 0.292500	 1433.022808	 0.912500	 0.190000	 
111.000000	 1320.669443	 0.142500	 1304.646821	 0.717500	 0.212500	 1116.019772	 0.277500	 1412.489579	 0.907500	 0.185000	 
112.000000	 1405.955985	 0.157500	 1502.916744	 0.742500	 0.207500	 1113.028976	 0.242500	 1384.582279	 0.902500	 0.170000	 
113.000000	 1506.570514	 0.152500	 1545.490128	 0.752500	 0.200000	 1131.247779	 0.177500	 1354.927674	 0.897500	 0.140000	 
114.000000	 1551.807110	 0.147500	 1435.314980	 0.762500	 0.192500	 1156.571257	 0.167500	 1330.652200	 0.892500	 0.137500	 
115.000000	 1538.942574	 0.157500	 1295.421012	 0.757500	 0.200000	 1180.141411	 0.162500	 1318.928986	 0.877500	 0.142500	 
116.000000	 1510.409815	 0.142500	 1183.194536	 0.767500	 0.187500	 1198.878923	 0.162500	 1310.928171	 0.877500	 0.142500	 
117.000000	 1509.908492	 0.157500	 1194.789406	 0.917500	 0.120000	 1216.153041	 0.162500	 1303.275399	 0.882500	 0.140000	 
118.000000	 1575.393421	 0.167500	 1253.604088	 0.937500	 0.115000	 1235.052334	 0.162500	 1297.936525	 0.882500	 0.140000	 
119.000000	 1632.269619	 0.172500	 1305.041591	 0.937500	 0.117500	 1254.404066	 0.167500	 1294.574990	 0.887500	 0.140000	 
120.000000	 1551.962537	 0.157500	 1343.729276	 0.932500	 0.112500	 1268.364990	 0.162500	 1293.123949	 0.892500	 0.135000	 
121.000000	 1391.490562	 0.132500	 1362.811173	 0.937500	 0.097500	 1272.093437	 0.162500	 1292.832831	 0.897500	 0.132500	 
122.000000	 1270.613536	 0.117500	 1371.824314	 0.942500	 0.087500	 1270.499902	 0.162500	 1292.478045	 0.902500	 0.130000	 
123.000000	 1203.536060	 0.122500	 1358.492488	 0.947500	 0.087500	 1267.233846	 0.162500	 1292.338252	 0.902500	 0.130000	 
124.000000	 1200.274619	 0.177500	 1327.677925	 0.942500	 0.117500	 1264.474812	 0.162500	 1293.430520	 0.902500	 0.130000	 
125.000000	 1224.489291	 0.167500	 1390.133508	 0.877500	 0.145000	 1262.904173	 0.162500	 1296.724883	 0.902500	 0.130000	 
126.000000	 1222.395973	 0.162500	 1446.300128	 0.887500	 0.137500	 1261.403869	 0.162500	 1302.063274	 0.902500	 0.130000	 
127.000000	 1192.649091	 0.162500	 1489.485583	 0.902500	 0.130000	 1258.948341	 0.162500	 1308.756928	 0.902500	 0.130000	 
128.000000	 1191.323331	 0.177500	 1525.293408	 0.917500	 0.130000	 1256.513239	 0.162500	 1316.045579	 0.902500	 0.130000	 
129.000000	 1241.265735	 0.177500	 1566.541781	 0.922500	 0.127500	 1255.728900	 0.162500	 1323.890779	 0.902500	 0.130000	 
130.000000	 1287.327993	 0.162500	 1617.507472	 0.922500	 0.120000	 1256.748226	 0.162500	 1332.597421	 0.907500	 0.127500	 
131.000000	 1323.198957	 0.142500	 1660.162023	 0.927500	 0.107500	 1258.076347	 0.162500	 1341.854108	 0.907500	 0.127500	 
132.000000	 1370.795664	 0.127500	 1679.797654	 0.927500	 0.100000	 1260.002720	 0.157500	 1351.335106	 0.907500	 0.125000	 
133.000000	 1423.829718	 0.112500	 1673.340013	 0.932500	 0.090000	 1262.427668	 0.157500	 1359.523008	 0.912500	 0.122500	 
134.000000	 1475.231130	 0.097500	 1602.218279	 0.937500	 0.080000	 1263.808330	 0.152500	 1365.631666	 0.912500	 0.120000	 
135.000000	 1509.429730	 0.082500	 1539.673433	 0.922500	 0.080000	 1265.112794	 0.152500	 1370.290885	 0.912500	 0.120000	 
136.000000	 1520.221175	 0.072500	 1493.352277	 0.907500	 0.082500	 1267.009655	 0.152500	 1373.602611	 0.912500	 0.120000	 
137.000000	 1521.648248	 0.077500	 1433.774191	 0.882500	 0.097500	 1270.262807	 0.147500	 1374.174310	 0.912500	 0.117500	 
138.000000	 1548.676230	 0.097500	 1393.454037	 0.847500	 0.125000	 1275.247840	 0.147500	 1371.640047	 0.907500	 0.120000	 
139.000000	 1587.921445	 0.107500	 1337.916129	 0.802500	 0.152500	 1281.066683	 0.147500	 1367.729382	 0.907500	 0.120000	 
140.000000	 1593.180784	 0.107500	 1321.342923	 0.777500	 0.165000	 1287.032125	 0.142500	 1363.433311	 0.907500	 0.117500	 
141.000000	 1582.044061	 0.117500	 1233.038375	 0.772500	 0.172500	 1293.346269	 0.142500	 1359.167717	 0.907500	 0.117500	 
142.000000	 1573.150016	 0.137500	 1212.491976	 0.777500	 0.180000	 1299.802349	 0.142500	 1354.946661	 0.907500	 0.117500	 
143.000000	 1560.562138	 0.137500	 1227.057311	 0.777500	 0.180000	 1305.697666	 0.142500	 1350.821785	 0.907500	 0.117500	 
144.000000	 1577.944731	 0.117500	 1231.267634	 0.802500	 0.157500	 1310.924819	 0.142500	 1347.128074	 0.907500	 0.117500	 
145.000000	 1601.197418	 0.117500	 1344.392190	 0.832500	 0.142500	 1316.188550	 0.142500	 1344.368707	 0.907500	 0.117500	 
146.000000	 1577.728526	 0.112500	 1453.255436	 0.837500	 0.137500	 1320.629115	 0.137500	 1342.255302	 0.907500	 0.115000	 
147.000000	 1521.199098	 0.082500	 1475.622436	 0.842500	 0.120000	 1322.229615	 0.137500	 1340.695208	 0.902500	 0.117500	 
148.000000	 1487.041482	 0.072500	 1423.225623	 0.837500	 0.117500	 1321.969812	 0.137500	 1339.733793	 0.902500	 0.117500	 
149.000000	 1420.192006	 0.067500	 1357.168180	 0.872500	 0.097500	 1321.074781	 0.137500	 1339.576614	 0.902500	 0.117500	 
150.000000	 1352.072760	 0.062500	 1345.808771	 0.902500	 0.080000	 1319.644278	 0.132500	 1339.698813	 0.902500	 0.115000	 
151.000000	 1297.922283	 0.057500	 1349.438599	 0.912500	 0.072500	 1317.693446	 0.132500	 1339.817809	 0.902500	 0.115000	 
152.000000	 1256.094065	 0.052500	 1364.050523	 0.922500	 0.065000	 1315.487555	 0.132500	 1340.067093	 0.902500	 0.115000	 
153.000000	 1242.368933	 0.062500	 1388.690090	 0.927500	 0.067500	 1313.634959	 0.132500	 1340.629682	 0.902500	 0.115000	 
154.000000	 1271.160612	 0.087500	 1412.119837	 0.927500	 0.080000	 1312.439818	 0.132500	 1341.711197	 0.902500	 0.115000	 
155.000000	 1308.708549	 0.107500	 1453.925132	 0.922500	 0.092500	 1312.257515	 0.132500	 1343.491036	 0.902500	 0.115000	 
156.000000	 1375.500673	 0.137500	 1501.069042	 0.927500	 0.105000	 1313.358086	 0.132500	 1345.887074	 0.902500	 0.115000	 
157.000000	 1442.065767	 0.137500	 1540.517003	 0.927500	 0.105000	 1315.553616	 0.132500	 1348.590817	 0.902500	 0.115000	 
158.000000	 1468.009639	 0.127500	 1549.216076	 0.932500	 0.097500	 1318.100060	 0.132500	 1351.634590	 0.902500	 0.115000	 
159.000000	 1447.793759	 0.107500	 1576.971864	 0.922500	 0.092500	 1320.013535	 0.132500	 1355.165182	 0.902500	 0.115000	 
160.000000	 1435.827400	 0.167500	 1611.130251	 0.917500	 0.125000	 1321.560853	 0.132500	 1359.177174	 0.907500	 0.112500	 
161.000000	 1445.798388	 0.152500	 1614.935345	 0.907500	 0.122500	 1323.273429	 0.132500	 1363.302305	 0.907500	 0.112500	 
162.000000	 1463.840921	 0.132500	 1620.432524	 0.892500	 0.120000	 1325.504659	 0.132500	 1367.136795	 0.902500	 0.115000	 
163.000000	 1506.234322	 0.107500	 1627.074618	 0.882500	 0.112500	 1327.893167	 0.132500	 1370.690771	 0.902500	 0.115000	 
164.000000	 1543.825910	 0.102500	 1640.492489	 0.887500	 0.107500	 1330.445884	 0.132500	 1374.315914	 0.902500	 0.115000	 
165.000000	 1582.162044	 0.097500	 1623.983617	 0.892500	 0.102500	 1333.195674	 0.132500	 1377.922353	 0.902500	 0.115000	 
166.000000	 1623.941551	 0.087500	 1547.109326	 0.907500	 0.090000	 1335.866347	 0.127500	 1380.406509	 0.902500	 0.112500	 
167.000000	 1640.308726	 0.072500	 1486.706712	 0.922500	 0.075000	 1338.079892	 0.127500	 1381.772631	 0.902500	 0.112500	 
168.000000	 1632.010885	 0.062500	 1466.905373	 0.912500	 0.075000	 1340.037486	 0.127500	 1382.913866	 0.902500	 0.112500	 
169.000000	 1615.673858	 0.057500	 1468.535166	 0.912500	 0.072500	 1341.437017	 0.127500	 1384.036363	 0.902500	 0.112500	 
170.000000	 1572.317206	 0.052500	 1446.211833	 0.907500	 0.072500	 1342.441904	 0.127500	 1384.872369	 0.902500	 0.112500	 
171.000000	 1519.241922	 0.062500	 1407.342923	 0.907500	 0.077500	 1343.330222	 0.122500	 1385.170021	 0.902500	 0.110000	 
172.000000	 1494.479360	 0.077500	 1365.749030	 0.897500	 0.090000	 1344.305544	 0.122500	 1384.897416	 0.902500	 0.110000	 
173.000000	 1473.136706	 0.082500	 1340.516746	 0.877500	 0.102500	 1345.002627	 0.122500	 1383.917206	 0.902500	 0.110000	 
174.000000	 1441.233267	 0.087500	 1376.357127	 0.857500	 0.115000	 1345.562250	 0.122500	 1382.419693	 0.902500	 0.110000	 
175.000000	 1422.188451	 0.097500	 1404.325684	 0.847500	 0.125000	 1346.275068	 0.122500	 1380.773975	 0.902500	 0.110000	 
176.000000	 1434.832722	 0.112500	 1402.212246	 0.852500	 0.130000	 1347.380236	 0.122500	 1379.550466	 0.897500	 0.112500	 
177.000000	 1466.124811	 0.122500	 1413.228775	 0.852500	 0.135000	 1348.902602	 0.122500	 1378.699880	 0.897500	 0.112500	 
178.000000	 1468.200652	 0.122500	 1406.221522	 0.857500	 0.132500	 1350.412704	 0.122500	 1378.082207	 0.897500	 0.112500	 
179.000000	 1467.097301	 0.097500	 1398.652429	 0.872500	 0.112500	 1351.750912	 0.122500	 1377.857178	 0.897500	 0.112500	 
180.000000	 1499.111152	 0.082500	 1399.979410	 0.877500	 0.102500	 1353.047097	 0.122500	 1377.905250	 0.897500	 0.112500	 
181.000000	 1534.058479	 0.072500	 1414.353992	 0.872500	 0.100000	 1354.267645	 0.122500	 1378.102375	 0.897500	 0.112500	 
182.000000	 1547.069118	 0.062500	 1459.505344	 0.872500	 0.095000	 1355.331633	 0.122500	 1378.711468	 0.897500	 0.112500	 
183.000000	 1533.613245	 0.062500	 1501.067713	 0.887500	 0.087500	 1356.336798	 0.117500	 1380.045192	 0.892500	 0.112500	 
184.000000	 1513.636104	 0.062500	 1482.759803	 0.902500	 0.080000	 1357.236020	 0.117500	 1381.225455	 0.897500	 0.110000	 
185.000000	 1500.300868	 0.067500	 1474.896379	 0.927500	 0.070000	 1358.186102	 0.117500	 1381.914028	 0.897500	 0.110000	 
186.000000	 1500.508579	 0.077500	 1488.872092	 0.937500	 0.070000	 1359.312322	 0.117500	 1382.468321	 0.897500	 0.110000	 
187.000000	 1513.444379	 0.087500	 1504.920229	 0.922500	 0.082500	 1360.676641	 0.117500	 1383.546019	 0.897500	 0.110000	 
188.000000	 1527.365943	 0.097500	 1540.094052	 0.912500	 0.092500	 1362.354624	 0.117500	 1385.147984	 0.897500	 0.110000	 
189.000000	 1531.681675	 0.107500	 1561.819126	 0.892500	 0.107500	 1364.177827	 0.117500	 1387.110891	 0.897500	 0.110000	 
190.000000	 1532.658376	 0.102500	 1593.163782	 0.892500	 0.105000	 1365.924739	 0.117500	 1389.355679	 0.897500	 0.110000	 
191.000000	 1546.902482	 0.092500	 1584.564937	 0.907500	 0.092500	 1367.549351	 0.117500	 1391.424796	 0.897500	 0.110000	 
192.000000	 1542.324852	 0.092500	 1586.445580	 0.907500	 0.092500	 1369.157740	 0.117500	 1393.483270	 0.897500	 0.110000	 
193.000000	 1536.132205	 0.097500	 1582.195256	 0.912500	 0.092500	 1370.763806	 0.117500	 1395.348502	 0.897500	 0.110000	 
194.000000	 1536.186172	 0.102500	 1580.403533	 0.922500	 0.090000	 1372.445010	 0.112500	 1397.020786	 0.897500	 0.107500	 
195.000000	 1566.630220	 0.112500	 1585.287597	 0.927500	 0.092500	 1374.467773	 0.112500	 1398.620095	 0.897500	 0.107500	 
196.000000	 1592.857253	 0.112500	 1596.249087	 0.932500	 0.090000	 1376.719210	 0.112500	 1400.183553	 0.897500	 0.107500	 
197.000000	 1554.463624	 0.107500	 1615.887774	 0.932500	 0.087500	 1378.528601	 0.112500	 1401.596070	 0.897500	 0.107500	 
198.000000	 1524.436701	 0.087500	 1632.691031	 0.937500	 0.075000	 1379.712189	 0.112500	 1402.756933	 0.897500	 0.107500	 
199.000000	 1517.276464	 0.077500	 1633.294534	 0.942500	 0.067500	 1380.623683	 0.112500	 1403.843783	 0.897500	 0.107500	 
200.000000	 1523.657236	 0.072500	 1619.198793	 0.942500	 0.065000	 1381.206922	 0.112500	 1404.919964	 0.902500	 0.105000	 
201.000000	 1532.276489	 0.062500	 1591.664816	 0.947500	 0.057500	 1381.411297	 0.112500	 1405.788859	 0.902500	 0.105000	 
202.000000	 1520.685151	 0.057500	 1555.696008	 0.942500	 0.057500	 1381.594325	 0.112500	 1406.378452	 0.902500	 0.105000	 
203.000000	 1493.898187	 0.062500	 1523.162095	 0.942500	 0.060000	 1382.016289	 0.112500	 1406.713383	 0.902500	 0.105000	 
204.000000	 1494.489523	 0.077500	 1480.666915	 0.937500	 0.070000	 1382.838071	 0.112500	 1406.805644	 0.902500	 0.105000	 
205.000000	 1535.798572	 0.097500	 1433.900039	 0.927500	 0.085000	 1384.216348	 0.112500	 1406.797255	 0.902500	 0.105000	 
206.000000	 1576.991281	 0.102500	 1417.370879	 0.917500	 0.092500	 1385.919542	 0.112500	 1406.800936	 0.902500	 0.105000	 
207.000000	 1568.332824	 0.092500	 1424.789624	 0.907500	 0.092500	 1387.421780	 0.112500	 1406.960003	 0.902500	 0.105000	 
208.000000	 1565.997783	 0.077500	 1445.738452	 0.892500	 0.092500	 1388.641066	 0.107500	 1407.269408	 0.902500	 0.102500	 
209.000000	 1570.063367	 0.067500	 1470.952944	 0.872500	 0.097500	 1389.759736	 0.107500	 1407.585195	 0.902500	 0.102500	 
210.000000	 1568.480873	 0.057500	 1471.230939	 0.872500	 0.092500	 1390.684122	 0.107500	 1407.993800	 0.902500	 0.102500	 
211.000000	 1553.857975	 0.052500	 1486.313629	 0.892500	 0.080000	 1391.395875	 0.107500	 1408.666296	 0.902500	 0.102500	 
212.000000	 1522.375255	 0.052500	 1499.295727	 0.902500	 0.075000	 1391.858095	 0.107500	 1409.468326	 0.902500	 0.102500	 
213.000000	 1482.520666	 0.057500	 1520.485350	 0.907500	 0.075000	 1392.160487	 0.107500	 1410.431086	 0.902500	 0.102500	 
214.000000	 1454.920510	 0.067500	 1556.610880	 0.912500	 0.077500	 1392.482365	 0.107500	 1411.664095	 0.902500	 0.102500	 
215.000000	 1468.516439	 0.082500	 1587.862038	 0.912500	 0.085000	 1393.031076	 0.107500	 1413.079689	 0.902500	 0.102500	 
216.000000	 1521.442329	 0.087500	 1586.024477	 0.917500	 0.085000	 1393.986198	 0.107500	 1414.310545	 0.902500	 0.102500	 
217.000000	 1558.800188	 0.082500	 1569.533347	 0.932500	 0.075000	 1394.983452	 0.107500	 1415.158861	 0.902500	 0.102500	 
218.000000	 1537.955487	 0.072500	 1561.544217	 0.937500	 0.067500	 1395.721764	 0.107500	 1415.942158	 0.902500	 0.102500	 
219.000000	 1516.853149	 0.067500	 1565.545749	 0.927500	 0.070000	 1396.303511	 0.107500	 1417.071482	 0.902500	 0.102500	 
220.000000	 1517.246564	 0.072500	 1614.831910	 0.912500	 0.080000	 1396.847094	 0.107500	 1418.678703	 0.902500	 0.102500	 
221.000000	 1505.216285	 0.087500	 1662.312154	 0.917500	 0.085000	 1397.593180	 0.107500	 1420.541098	 0.902500	 0.102500	 
222.000000	 1543.449516	 0.127500	 1656.953455	 0.922500	 0.102500	 1398.661287	 0.107500	 1422.327651	 0.902500	 0.102500	 
223.000000	 1574.059783	 0.132500	 1653.599527	 0.932500	 0.100000	 1399.711056	 0.107500	 1423.850909	 0.902500	 0.102500	 
224.000000	 1536.299812	 0.127500	 1651.544591	 0.937500	 0.095000	 1400.646473	 0.107500	 1425.159519	 0.902500	 0.102500	 
225.000000	 1509.544991	 0.112500	 1644.860131	 0.937500	 0.087500	 1401.496563	 0.107500	 1426.381371	 0.907500	 0.100000	 
226.000000	 1515.554535	 0.107500	 1632.391541	 0.937500	 0.085000	 1402.394658	 0.107500	 1427.598460	 0.907500	 0.100000	 
227.000000	 1547.062976	 0.107500	 1621.965132	 0.932500	 0.087500	 1403.524879	 0.107500	 1428.868222	 0.907500	 0.100000	 
228.000000	 1580.507297	 0.107500	 1617.820742	 0.922500	 0.092500	 1404.896835	 0.107500	 1430.189577	 0.907500	 0.100000	 
229.000000	 1608.708289	 0.107500	 1623.492362	 0.917500	 0.095000	 1406.464616	 0.107500	 1431.590326	 0.907500	 0.100000	 
230.000000	 1622.663910	 0.102500	 1598.778741	 0.922500	 0.090000	 1408.109754	 0.107500	 1432.727224	 0.907500	 0.100000	 
231.000000	 1597.502242	 0.092500	 1539.885977	 0.922500	 0.085000	 1409.440439	 0.107500	 1433.473120	 0.907500	 0.100000	 
232.000000	 1572.156349	 0.072500	 1508.245715	 0.927500	 0.072500	 1410.271645	 0.107500	 1433.959641	 0.907500	 0.100000	 
233.000000	 1569.710618	 0.062500	 1523.394113	 0.932500	 0.065000	 1410.703626	 0.107500	 1434.348014	 0.907500	 0.100000	 
234.000000	 1549.726392	 0.052500	 1540.409387	 0.937500	 0.057500	 1410.864100	 0.107500	 1434.514951	 0.907500	 0.100000	 
235.000000	 1507.739390	 0.052500	 1512.669877	 0.937500	 0.057500	 1410.920412	 0.107500	 1434.667909	 0.907500	 0.100000	 
236.000000	 1475.283723	 0.067500	 1485.141901	 0.932500	 0.067500	 1411.115457	 0.107500	 1434.857269	 0.907500	 0.100000	 
237.000000	 1498.148969	 0.092500	 1465.654477	 0.912500	 0.090000	 1411.716806	 0.102500	 1435.075809	 0.907500	 0.097500	 
238.000000	 1540.181073	 0.102500	 1486.513306	 0.882500	 0.110000	 1412.641010	 0.102500	 1435.297737	 0.907500	 0.097500	 
239.000000	 1548.802958	 0.097500	 1523.152572	 0.867500	 0.115000	 1413.596015	 0.102500	 1435.440382	 0.907500	 0.097500	 
240.000000	 1549.464412	 0.082500	 1526.108144	 0.867500	 0.107500	 1414.384064	 0.102500	 1435.587553	 0.907500	 0.097500	 
241.000000	 1551.769473	 0.077500	 1526.746764	 0.872500	 0.102500	 1415.003236	 0.102500	 1435.878874	 0.907500	 0.097500	 
242.000000	 1563.973752	 0.072500	 1545.971523	 0.882500	 0.095000	 1415.659727	 0.102500	 1436.402761	 0.907500	 0.097500	 
243.000000	 1594.178899	 0.072500	 1561.854355	 0.887500	 0.092500	 1416.534755	 0.102500	 1437.107119	 0.907500	 0.097500	 
244.000000	 1634.756129	 0.077500	 1577.162259	 0.887500	 0.095000	 1417.706083	 0.102500	 1437.940837	 0.907500	 0.097500	 
245.000000	 1648.588321	 0.072500	 1596.392221	 0.892500	 0.090000	 1418.910052	 0.102500	 1438.947136	 0.907500	 0.097500	 
246.000000	 1635.487934	 0.067500	 1600.377517	 0.907500	 0.080000	 1419.896921	 0.102500	 1440.045302	 0.907500	 0.097500	 
247.000000	 1609.799908	 0.057500	 1577.383130	 0.917500	 0.070000	 1420.556820	 0.102500	 1440.908065	 0.907500	 0.097500	 
248.000000	 1572.841929	 0.052500	 1558.456260	 0.932500	 0.060000	 1420.967962	 0.102500	 1441.528530	 0.907500	 0.097500	 
249.000000	 1537.234696	 0.052500	 1547.621746	 0.932500	 0.060000	 1421.254592	 0.102500	 1442.105286	 0.907500	 0.097500	 
250.000000	 1522.915461	 0.057500	 1556.350260	 0.922500	 0.067500	 1421.579153	 0.102500	 1442.810547	 0.907500	 0.097500	 
251.000000	 1535.230505	 0.067500	 1582.222336	 0.917500	 0.075000	 1422.056056	 0.102500	 1443.694186	 0.907500	 0.097500	 
252.000000	 1551.683861	 0.077500	 1594.317377	 0.917500	 0.080000	 1422.685128	 0.102500	 1444.619495	 0.907500	 0.097500	 
253.000000	 1554.558812	 0.087500	 1582.064843	 0.922500	 0.082500	 1423.453102	 0.102500	 1445.410299	 0.907500	 0.097500	 
254.000000	 1571.483780	 0.097500	 1568.562576	 0.932500	 0.082500	 1424.396795	 0.102500	 1446.000266	 0.907500	 0.097500	 
255.000000	 1600.668342	 0.102500	 1566.524307	 0.937500	 0.082500	 1425.526741	 0.102500	 1446.480588	 0.907500	 0.097500	 
